File: data/rawdata_robin_all/popularity_export/TGA.csv
timestamp,users_holding
"2018-05-02 04:54:29",134
"2018-05-05 21:43:48",144
"2018-05-08 19:43:48",151
"2018-05-11 13:43:51",157
"2018-05-14 07:43:49",154
"2018-05-17 01:43:49",147
"2018-05-20 10:43:49",173
"2018-05-23 04:43:50",306
"2018-05-26 05:43:50",297
"2018-05-28 23:43:51",297
"2018-06-01 23:43:52",273
"2018-06-05 05:43:48",266
"2018-06-07 23:43:52",271
"2018-06-10 17:43:52",260
"2018-06-13 12:43:51",266
"2018-06-16 06:43:53",255
"2018-06-19 00:43:52",248
"2018-06-21 18:43:53",249
"2018-06-24 12:43:55",249
"2018-06-27 07:43:53",257
"2018-06-30 01:43:53",348
"2018-07-02 19:43:56",364
"2018-07-05 13:43:55",393
"2018-07-08 07:43:54",403
"2018-07-11 01:43:57",507
"2018-07-13 19:43:58",650
"2018-07-16 13:44:09",662
"2018-07-19 07:44:12",570
"2018-07-22 01:44:00",524
"2018-07-25 08:44:01",500
"2018-07-28 03:44:02",453
"2018-07-30 21:44:02",446
"2018-08-02 15:44:06",430
"2018-08-05 09:44:02",421
"2018-08-08 03:44:04",412
"2018-08-11 20:44:07",402
"2018-08-14 14:44:09",405
"2018-08-17 08:44:08",396
"2018-08-20 02:44:07",398
"2018-08-22 20:44:04",410
"2018-08-26 05:44:05",392
"2018-08-28 23:44:19",385
"2018-08-31 17:44:21",376
"2018-09-03 11:44:20",376
"2018-09-06 05:44:21",361
"2018-09-09 00:44:18",348
"2018-09-11 18:44:21",400
"2018-09-15 07:44:20",387
"2018-09-18 01:44:20",379
"2018-09-20 20:44:23",359
"2018-09-23 15:44:21",352
"2018-09-26 09:44:22",374
"2018-09-29 03:44:24",368
"2018-10-01 21:44:23",360
"2018-10-04 15:44:23",342
"2018-10-07 09:44:22",326
"2018-10-10 04:44:22",320
"2018-10-12 22:44:22",309
"2018-10-15 16:44:27",310
"2018-10-18 14:44:26",303
"2018-10-21 08:44:22",300
"2018-10-24 02:44:25",306
"2018-10-26 21:44:24",318
"2018-10-29 15:44:22",315
"2018-11-01 09:44:24",306
"2018-11-04 03:44:25",302
"2018-11-06 21:44:26",298
"2018-11-09 15:44:29",301
"2018-11-12 09:44:27",299
"2018-11-15 03:44:26",296
"2018-11-17 21:44:26",293
"2018-11-20 16:44:26",295
"2018-11-23 11:44:27",301
"2018-11-26 05:44:26",301
"2018-11-28 23:44:25",302
"2018-12-01 17:44:26",293
"2018-12-04 11:44:26",289
"2018-12-07 05:44:33",289
"2018-12-10 00:44:34",287
"2018-12-12 18:44:33",277
"2018-12-15 12:44:34",276
"2018-12-18 06:44:32",276
"2018-12-21 01:44:35",270
"2018-12-23 19:44:37",270
"2018-12-26 13:44:41",271
"2018-12-29 07:44:42",268
"2019-01-01 01:44:36",268
"2019-01-03 20:44:36",270
"2019-01-06 14:44:34",267
"2019-01-09 09:44:36",272
"2019-01-12 03:44:36",270
"2019-01-14 21:44:35",270
"2019-01-17 15:44:38",270
"2019-01-20 09:44:34",271
"2019-01-23 03:44:35",271
"2019-01-31 06:49:15",267
"2019-02-03 00:44:42",268
"2019-02-05 18:44:46",271
"2019-02-09 04:44:47",269
"2019-02-11 22:44:44",268
"2019-02-14 16:44:42",271
"2019-02-17 11:44:45",266
"2019-02-20 05:44:48",269
"2019-02-22 23:44:50",269
"2019-02-25 17:44:49",269
"2019-02-28 13:44:49",268
"2019-03-05 07:44:47",275
"2019-03-08 02:44:50",272
"2019-03-10 21:44:47",273
"2019-03-13 15:44:48",268
"2019-03-16 09:44:49",268
"2019-03-19 03:44:51",272
"2019-03-21 21:44:45",275
"2019-03-24 15:44:46",278
"2019-03-27 09:44:47",272
"2019-03-30 03:44:57",274
"2019-04-01 22:44:53",279
"2019-04-04 16:44:59",279
"2019-04-07 10:44:48",282
"2019-04-10 04:45:02",290
"2019-04-13 09:44:56",295
"2019-04-16 03:44:59",297
"2019-04-18 22:44:52",298
"2019-04-21 17:44:52",298
"2019-04-24 11:44:58",301
"2019-04-27 05:44:51",304
"2019-04-29 23:44:51",301
"2019-05-02 18:44:55",297
"2019-05-05 12:44:56",297
"2019-05-08 05:44:54",296
"2019-05-10 23:44:56",293
"2019-05-13 17:44:54",293
"2019-05-16 11:44:57",293
"2019-05-19 06:44:48",294
"2019-05-22 00:44:47",295
"2019-05-24 18:44:52",295
"2019-05-28 13:44:51",297
"2019-05-31 07:44:48",300
"2019-06-03 01:44:53",299
"2019-06-05 19:44:54",301
"2019-06-08 13:44:50",301
"2019-06-11 07:44:53",300
"2019-06-14 01:44:56",297
"2019-06-16 19:44:56",297
"2019-06-19 13:44:57",299
"2019-06-22 07:44:57",300
"2019-06-25 01:45:00",299
"2019-06-27 19:44:54",297
"2019-06-30 13:44:58",298
"2019-07-03 09:44:59",299
"2019-07-06 03:44:59",299
"2019-07-08 21:44:57",304
"2019-07-11 15:44:56",307
"2019-07-14 09:44:53",308
"2019-07-17 03:44:59",314
"2019-07-19 21:44:55",313
"2019-07-22 15:44:56",313
"2019-07-25 09:44:57",316
"2019-07-28 04:44:57",314
"2019-07-30 22:45:00",313
"2019-08-02 16:45:03",311
"2019-08-05 10:44:59",307
"2019-08-08 05:44:59",310
"2019-08-10 23:45:03",312
"2019-08-13 17:45:03",314
"2019-08-16 11:44:57",317
"2019-08-19 07:45:17",318
"2019-08-22 01:45:03",321
"2019-08-24 19:45:04",326
"2019-08-27 13:45:24",330
"2019-08-30 07:44:59",334
"2019-09-02 20:45:13",334
"2019-09-05 15:45:15",338
"2019-09-08 11:45:13",335
"2019-09-11 05:45:24",336
"2019-09-13 23:45:13",344
"2019-09-16 17:45:12",343
"2019-09-19 11:45:09",343
"2019-09-22 05:45:09",344
"2019-09-25 00:45:12",347
"2019-09-27 18:45:09",351
"2019-09-30 12:45:14",351
"2019-10-03 07:45:13",365
"2019-10-06 01:45:10",374
"2019-10-08 19:45:12",373
"2019-10-11 13:45:15",372
"2019-10-14 07:45:10",370
"2019-10-17 02:45:12",379
"2019-10-19 21:45:10",391
"2019-10-22 17:45:17",403
"2019-10-25 11:45:21",407
"2019-10-28 05:45:11",411
"2019-10-31 04:45:13",415
"2019-11-03 00:45:12",412
"2019-11-06 10:45:16",410
"2019-11-09 04:45:24",401
"2019-11-11 23:45:21",401
"2019-11-14 19:45:21",401
"2019-11-17 15:45:18",402
"2019-11-20 09:45:31",409
"2019-11-23 08:45:21",413
"2019-11-26 03:45:21",419
"2019-11-29 09:45:34",419
"2019-12-03 13:47:33",415
"2019-12-06 09:48:01",418
"2019-12-09 03:48:11",415
"2019-12-11 21:48:08",420
"2019-12-14 16:49:14",415
"2019-12-17 15:49:29",413
"2019-12-20 10:48:29",420
"2019-12-23 07:48:39",416
"2019-12-26 01:49:07",424
"2019-12-28 20:49:31",421
"2019-12-31 16:49:09",424
"2020-01-03 10:48:54",425
"2020-01-06 06:49:22",423
"2020-01-18 23:48:31",437
"2020-01-21 19:49:19",437
"2020-01-24 14:48:51",439
"2020-01-28 04:48:49",439
"2020-01-30 23:48:24",437
"2020-02-02 17:49:02",437
"2020-02-05 12:49:00",434
"2020-02-08 06:48:51",433
"2020-02-11 00:48:59",430
"2020-02-13 18:49:19",434
"2020-02-16 12:47:51",434
"2020-02-19 09:48:47",436
"2020-02-22 04:49:57",431
"2020-02-24 22:50:16",431
"2020-02-27 16:50:29",429
"2020-03-01 11:49:05",431
"2020-03-04 17:50:17",434
"2020-03-07 11:51:47",436
"2020-03-10 06:52:35",440
"2020-03-13 00:52:51",444
"2020-03-15 18:52:36",448
"2020-03-19 04:50:01",458
"2020-03-21 23:49:55",461
"2020-03-25 01:50:06",473
"2020-03-27 22:50:06",511
"2020-03-30 16:50:08",516
"2020-04-02 10:48:49",520
"2020-04-05 06:49:13",537
"2020-04-08 00:48:49",537
"2020-04-10 20:48:58",540
"2020-04-13 14:47:53",549
"2020-04-16 09:47:55",572
"2020-04-19 03:48:25",579
"2020-04-21 22:48:32",602
"2020-04-24 16:47:58",607
"2020-04-27 10:48:09",607
"2020-04-30 04:48:25",627
"2020-05-02 23:48:30",651
"2020-05-05 17:48:00",659
"2020-05-08 22:48:16",649
"2020-05-11 16:48:13",654
"2020-05-14 16:47:54",649
"2020-05-18 09:59:38",653
"2020-05-20 05:48:09",657
"2020-05-22 23:48:01",660
"2020-05-25 18:48:08",660
"2020-05-28 13:11:49",671
"2020-05-31 06:48:18",685
"2020-06-03 00:48:23",698
"2020-06-05 18:48:19",726
"2020-06-09 08:49:13",780
"2020-06-12 03:48:21",825
"2020-06-14 21:48:28",822
"2020-06-16 18:48:18",816
"2020-06-19 13:48:53",823
"2020-06-22 07:48:06",819
"2020-06-25 02:48:08",832
"2020-06-27 20:48:11",828
"2020-06-30 14:48:34",827
"2020-07-03 08:48:26",836
"2020-07-06 02:48:25",836
"2020-07-08 20:48:31",864
"2020-07-12 04:48:17",860
"2020-07-14 22:49:04",848
"2020-07-15 18:34:33",850
"2020-07-16 05:19:44",849
"2020-07-16 18:06:25",849
"2020-07-17 04:56:19",849
"2020-07-17 14:47:17",849
"2020-07-18 00:51:03",844
"2020-07-18 13:38:00",844
"2020-07-19 02:07:11",844
"2020-07-19 12:07:07",844
"2020-07-19 21:56:12",844
"2020-07-20 06:58:05",844
"2020-07-20 21:47:14",846
"2020-07-23 15:47:10",895
"2020-07-26 09:46:59",883
"2020-07-29 03:46:55",872
"2020-07-31 21:46:57",877
"2020-08-03 15:47:19",878
"2020-08-06 09:46:57",893
"2020-08-09 03:47:15",893
"2020-08-11 21:47:19",882
"2020-08-13 22:55:48",871